|6.6.6
water_3.tab                                                                                         
           1
T(K)    
   0.0000000000000000     
   0.0000000000000000     
          16
           3
T(K)           P(bar)         rho,kg/m3     
  923.150        10000.0        960.716     
  923.150        10010.0        960.966     
  923.150        10020.0        961.217     
  923.150        10030.0        961.467     
  923.150        10040.0        961.717     
  923.150        10050.0        961.967     
  923.150        10060.0        962.216     
  923.150        10070.0        962.466     
  923.150        10080.0        962.715     
  923.150        10090.0        962.963     
  923.150        10100.1        963.212     
  923.150        10110.1        963.460     
  923.150        10120.1        963.708     
  923.150        10130.1        963.956     
  923.150        10140.1        964.204     
  923.150        10150.1        964.451     
  923.150        10160.1        964.698     
  923.150        10170.1        964.945     
  923.150        10180.1        965.192     
  923.150        10190.1        965.438     
  923.150        10200.1        965.684     
  923.150        10210.1        965.930     
  923.150        10220.1        966.176     
  923.150        10230.1        966.421     
  923.150        10240.1        966.667     
  923.150        10250.1        966.912     
  923.150        10260.1        967.156     
  923.150        10270.1        967.401     
  923.150        10280.1        967.645     
  923.150        10290.1        967.889     
  923.150        10300.2        968.133     
  923.150        10310.2        968.377     
  923.150        10320.2        968.620     
  923.150        10330.2        968.863     
  923.150        10340.2        969.106     
  923.150        10350.2        969.349     
  923.150        10360.2        969.591     
  923.150        10370.2        969.834     
  923.150        10380.2        970.076     
  923.150        10390.2        970.317     
  923.150        10400.2        970.559     
  923.150        10410.2        970.800     
  923.150        10420.2        971.041     
  923.150        10430.2        971.282     
  923.150        10440.2        971.523     
  923.150        10450.2        971.763     
  923.150        10460.2        972.004     
  923.150        10470.2        972.244     
  923.150        10480.2        972.483     
  923.150        10490.2        972.723     
  923.150        10500.3        972.962     
  923.150        10510.3        973.201     
  923.150        10520.3        973.440     
  923.150        10530.3        973.679     
  923.150        10540.3        973.917     
  923.150        10550.3        974.156     
  923.150        10560.3        974.394     
  923.150        10570.3        974.632     
  923.150        10580.3        974.869     
  923.150        10590.3        975.106     
  923.150        10600.3        975.344     
  923.150        10610.3        975.581     
  923.150        10620.3        975.817     
  923.150        10630.3        976.054     
  923.150        10640.3        976.290     
  923.150        10650.3        976.526     
  923.150        10660.3        976.762     
  923.150        10670.3        976.998     
  923.150        10680.3        977.233     
  923.150        10690.3        977.468     
  923.150        10700.4        977.703     
  923.150        10710.4        977.938     
  923.150        10720.4        978.173     
  923.150        10730.4        978.407     
  923.150        10740.4        978.641     
  923.150        10750.4        978.875     
  923.150        10760.4        979.109     
  923.150        10770.4        979.342     
  923.150        10780.4        979.576     
  923.150        10790.4        979.809     
  923.150        10800.4        980.042     
  923.150        10810.4        980.274     
  923.150        10820.4        980.507     
  923.150        10830.4        980.739     
  923.150        10840.4        980.971     
  923.150        10850.4        981.203     
  923.150        10860.4        981.435     
  923.150        10870.4        981.666     
  923.150        10880.4        981.897     
  923.150        10890.4        982.129     
  923.150        10900.5        982.359     
  923.150        10910.5        982.590     
  923.150        10920.5        982.820     
  923.150        10930.5        983.051     
  923.150        10940.5        983.281     
  923.150        10950.5        983.511     
  923.150        10960.5        983.740     
  923.150        10970.5        983.970     
  923.150        10980.5        984.199     
  923.150        10990.5        984.428     
  923.150        11000.5        984.657     
  923.150        11010.5        984.885     
  923.150        11020.5        985.114     
  923.150        11030.5        985.342     
  923.150        11040.5        985.570     
  923.150        11050.5        985.798     
  923.150        11060.5        986.025     
  923.150        11070.5        986.253     
  923.150        11080.5        986.480     
  923.150        11090.5        986.707     
  923.150        11100.6        986.934     
  923.150        11110.6        987.160     
  923.150        11120.6        987.387     
  923.150        11130.6        987.613     
  923.150        11140.6        987.839     
  923.150        11150.6        988.065     
  923.150        11160.6        988.291     
  923.150        11170.6        988.516     
  923.150        11180.6        988.741     
  923.150        11190.6        988.966     
  923.150        11200.6        989.191     
  923.150        11210.6        989.416     
  923.150        11220.6        989.641     
  923.150        11230.6        989.865     
  923.150        11240.6        990.089     
  923.150        11250.6        990.313     
  923.150        11260.6        990.537     
  923.150        11270.6        990.760     
  923.150        11280.6        990.983     
  923.150        11290.6        991.207     
  923.150        11300.7        991.430     
  923.150        11310.7        991.652     
  923.150        11320.7        991.875     
  923.150        11330.7        992.097     
  923.150        11340.7        992.320     
  923.150        11350.7        992.542     
  923.150        11360.7        992.763     
  923.150        11370.7        992.985     
  923.150        11380.7        993.207     
  923.150        11390.7        993.428     
  923.150        11400.7        993.649     
  923.150        11410.7        993.870     
  923.150        11420.7        994.091     
  923.150        11430.7        994.311     
  923.150        11440.7        994.531     
  923.150        11450.7        994.752     
  923.150        11460.7        994.972     
  923.150        11470.7        995.191     
  923.150        11480.7        995.411     
  923.150        11490.7        995.630     
  923.150        11500.8        995.850     
  923.150        11510.8        996.069     
  923.150        11520.8        996.288     
  923.150        11530.8        996.506     
  923.150        11540.8        996.725     
  923.150        11550.8        996.943     
  923.150        11560.8        997.161     
  923.150        11570.8        997.379     
  923.150        11580.8        997.597     
  923.150        11590.8        997.815     
  923.150        11600.8        998.032     
  923.150        11610.8        998.249     
  923.150        11620.8        998.466     
  923.150        11630.8        998.683     
  923.150        11640.8        998.900     
  923.150        11650.8        999.117     
  923.150        11660.8        999.333     
  923.150        11670.8        999.549     
  923.150        11680.8        999.765     
  923.150        11690.8        999.981     
  923.150        11700.9        1000.20     
  923.150        11710.9        1000.41     
  923.150        11720.9        1000.63     
  923.150        11730.9        1000.84     
  923.150        11740.9        1001.06     
  923.150        11750.9        1001.27     
  923.150        11760.9        1001.49     
  923.150        11770.9        1001.70     
  923.150        11780.9        1001.92     
  923.150        11790.9        1002.13     
  923.150        11800.9        1002.34     
  923.150        11810.9        1002.56     
  923.150        11820.9        1002.77     
  923.150        11830.9        1002.98     
  923.150        11840.9        1003.20     
  923.150        11850.9        1003.41     
  923.150        11860.9        1003.62     
  923.150        11870.9        1003.84     
  923.150        11880.9        1004.05     
  923.150        11890.9        1004.26     
  923.150        11901.0        1004.47     
  923.150        11911.0        1004.69     
  923.150        11921.0        1004.90     
  923.150        11931.0        1005.11     
  923.150        11941.0        1005.32     
  923.150        11951.0        1005.53     
  923.150        11961.0        1005.74     
  923.150        11971.0        1005.95     
  923.150        11981.0        1006.16     
  923.150        11991.0        1006.38     
  923.150        12001.0        1006.59     
  923.150        12011.0        1006.80     
  923.150        12021.0        1007.01     
  923.150        12031.0        1007.22     
  923.150        12041.0        1007.43     
  923.150        12051.0        1007.64     
  923.150        12061.0        1007.85     
  923.150        12071.0        1008.05     
  923.150        12081.0        1008.26     
  923.150        12091.0        1008.47     
  923.150        12101.1        1008.68     
  923.150        12111.1        1008.89     
  923.150        12121.1        1009.10     
  923.150        12131.1        1009.31     
  923.150        12141.1        1009.52     
  923.150        12151.1        1009.72     
  923.150        12161.1        1009.93     
  923.150        12171.1        1010.14     
  923.150        12181.1        1010.35     
  923.150        12191.1        1010.55     
  923.150        12201.1        1010.76     
  923.150        12211.1        1010.97     
  923.150        12221.1        1011.18     
  923.150        12231.1        1011.38     
  923.150        12241.1        1011.59     
  923.150        12251.1        1011.79     
  923.150        12261.1        1012.00     
  923.150        12271.1        1012.21     
  923.150        12281.1        1012.41     
  923.150        12291.1        1012.62     
  923.150        12301.2        1012.82     
  923.150        12311.2        1013.03     
  923.150        12321.2        1013.24     
  923.150        12331.2        1013.44     
  923.150        12341.2        1013.65     
  923.150        12351.2        1013.85     
  923.150        12361.2        1014.05     
  923.150        12371.2        1014.26     
  923.150        12381.2        1014.46     
  923.150        12391.2        1014.67     
  923.150        12401.2        1014.87     
  923.150        12411.2        1015.08     
  923.150        12421.2        1015.28     
  923.150        12431.2        1015.48     
  923.150        12441.2        1015.69     
  923.150        12451.2        1015.89     
  923.150        12461.2        1016.09     
  923.150        12471.2        1016.30     
  923.150        12481.2        1016.50     
  923.150        12491.2        1016.70     
  923.150        12501.3        1016.90     
  923.150        12511.3        1017.11     
  923.150        12521.3        1017.31     
  923.150        12531.3        1017.51     
  923.150        12541.3        1017.71     
  923.150        12551.3        1017.91     
  923.150        12561.3        1018.12     
  923.150        12571.3        1018.32     
  923.150        12581.3        1018.52     
  923.150        12591.3        1018.72     
  923.150        12601.3        1018.92     
  923.150        12611.3        1019.12     
  923.150        12621.3        1019.32     
  923.150        12631.3        1019.52     
  923.150        12641.3        1019.72     
  923.150        12651.3        1019.92     
  923.150        12661.3        1020.12     
  923.150        12671.3        1020.32     
  923.150        12681.3        1020.52     
  923.150        12691.3        1020.72     
  923.150        12701.4        1020.92     
  923.150        12711.4        1021.12     
  923.150        12721.4        1021.32     
  923.150        12731.4        1021.52     
  923.150        12741.4        1021.72     
  923.150        12751.4        1021.92     
  923.150        12761.4        1022.12     
  923.150        12771.4        1022.31     
  923.150        12781.4        1022.51     
  923.150        12791.4        1022.71     
  923.150        12801.4        1022.91     
  923.150        12811.4        1023.11     
  923.150        12821.4        1023.30     
  923.150        12831.4        1023.50     
  923.150        12841.4        1023.70     
  923.150        12851.4        1023.90     
  923.150        12861.4        1024.09     
  923.150        12871.4        1024.29     
  923.150        12881.4        1024.49     
  923.150        12891.4        1024.68     
  923.150        12901.5        1024.88     
  923.150        12911.5        1025.08     
  923.150        12921.5        1025.27     
  923.150        12931.5        1025.47     
  923.150        12941.5        1025.66     
  923.150        12951.5        1025.86     
  923.150        12961.5        1026.06     
  923.150        12971.5        1026.25     
  923.150        12981.5        1026.45     
  923.150        12991.5        1026.64     
  923.150        13001.5        1026.84     
  923.150        13011.5        1027.03     
  923.150        13021.5        1027.23     
  923.150        13031.5        1027.42     
  923.150        13041.5        1027.62     
  923.150        13051.5        1027.81     
  923.150        13061.5        1028.01     
  923.150        13071.5        1028.20     
  923.150        13081.5        1028.39     
  923.150        13091.5        1028.59     
  923.150        13101.6        1028.78     
  923.150        13111.6        1028.97     
  923.150        13121.6        1029.17     
  923.150        13131.6        1029.36     
  923.150        13141.6        1029.55     
  923.150        13151.6        1029.75     
  923.150        13161.6        1029.94     
  923.150        13171.6        1030.13     
  923.150        13181.6        1030.33     
  923.150        13191.6        1030.52     
  923.150        13201.6        1030.71     
  923.150        13211.6        1030.90     
  923.150        13221.6        1031.09     
  923.150        13231.6        1031.29     
  923.150        13241.6        1031.48     
  923.150        13251.6        1031.67     
  923.150        13261.6        1031.86     
  923.150        13271.6        1032.05     
  923.150        13281.6        1032.24     
  923.150        13291.6        1032.43     
  923.150        13301.7        1032.63     
  923.150        13311.7        1032.82     
  923.150        13321.7        1033.01     
  923.150        13331.7        1033.20     
  923.150        13341.7        1033.39     
  923.150        13351.7        1033.58     
  923.150        13361.7        1033.77     
  923.150        13371.7        1033.96     
  923.150        13381.7        1034.15     
  923.150        13391.7        1034.34     
  923.150        13401.7        1034.53     
  923.150        13411.7        1034.72     
  923.150        13421.7        1034.91     
  923.150        13431.7        1035.10     
  923.150        13441.7        1035.29     
  923.150        13451.7        1035.47     
  923.150        13461.7        1035.66     
  923.150        13471.7        1035.85     
  923.150        13481.7        1036.04     
  923.150        13491.7        1036.23     
  923.150        13501.8        1036.42     
  923.150        13511.8        1036.61     
  923.150        13521.8        1036.79     
  923.150        13531.8        1036.98     
  923.150        13541.8        1037.17     
  923.150        13551.8        1037.36     
  923.150        13561.8        1037.54     
  923.150        13571.8        1037.73     
  923.150        13581.8        1037.92     
  923.150        13591.8        1038.11     
  923.150        13601.8        1038.29     
  923.150        13611.8        1038.48     
  923.150        13621.8        1038.67     
  923.150        13631.8        1038.85     
  923.150        13641.8        1039.04     
  923.150        13651.8        1039.23     
  923.150        13661.8        1039.41     
  923.150        13671.8        1039.60     
  923.150        13681.8        1039.78     
  923.150        13691.8        1039.97     
  923.150        13701.9        1040.16     
  923.150        13711.9        1040.34     
  923.150        13721.9        1040.53     
  923.150        13731.9        1040.71     
  923.150        13741.9        1040.90     
  923.150        13751.9        1041.08     
  923.150        13761.9        1041.27     
  923.150        13771.9        1041.45     
  923.150        13781.9        1041.64     
  923.150        13791.9        1041.82     
  923.150        13801.9        1042.01     
  923.150        13811.9        1042.19     
  923.150        13821.9        1042.37     
  923.150        13831.9        1042.56     
  923.150        13841.9        1042.74     
  923.150        13851.9        1042.93     
  923.150        13861.9        1043.11     
  923.150        13871.9        1043.29     
  923.150        13881.9        1043.48     
  923.150        13891.9        1043.66     
  923.150        13902.0        1043.84     
  923.150        13912.0        1044.03     
  923.150        13922.0        1044.21     
  923.150        13932.0        1044.39     
  923.150        13942.0        1044.57     
  923.150        13952.0        1044.76     
  923.150        13962.0        1044.94     
  923.150        13972.0        1045.12     
  923.150        13982.0        1045.30     
  923.150        13992.0        1045.49     
  923.150        14002.0        1045.67     
  923.150        14012.0        1045.85     
  923.150        14022.0        1046.03     
  923.150        14032.0        1046.21     
  923.150        14042.0        1046.40     
  923.150        14052.0        1046.58     
  923.150        14062.0        1046.76     
  923.150        14072.0        1046.94     
  923.150        14082.0        1047.12     
  923.150        14092.0        1047.30     
  923.150        14102.1        1047.48     
  923.150        14112.1        1047.66     
  923.150        14122.1        1047.84     
  923.150        14132.1        1048.02     
  923.150        14142.1        1048.20     
  923.150        14152.1        1048.38     
  923.150        14162.1        1048.56     
  923.150        14172.1        1048.74     
  923.150        14182.1        1048.92     
  923.150        14192.1        1049.10     
  923.150        14202.1        1049.28     
  923.150        14212.1        1049.46     
  923.150        14222.1        1049.64     
  923.150        14232.1        1049.82     
  923.150        14242.1        1050.00     
  923.150        14252.1        1050.18     
  923.150        14262.1        1050.36     
  923.150        14272.1        1050.54     
  923.150        14282.1        1050.72     
